File: XRD-RCQD.txt
10	152
10.24	117
10.48	91
10.72	65
10.96	76
11.2	64
11.44	70
11.68	59
11.92	59
12.16	75
12.4	67
12.64	72
12.88	68
13.12	71
13.36	82
13.6	75
13.84	95
14.08	65
14.32	107
14.56	91
14.8	72
15.04	76
15.28	86
15.52	72
15.76	81
16	73
16.24	89
16.48	90
16.72	92
16.96	80
17.2	73
17.44	80
17.68	79
17.92	83
18.16	71
18.4	88
18.64	72
18.88	77
19.12	63
19.36	78
19.6	94
19.84	79
20.08	79
20.32	110
20.56	120
20.8	128
21.04	191
21.28	174
21.52	135
21.76	225
22	117
22.24	155
22.48	97
22.72	86
22.96	117
23.2	92
23.44	74
23.68	71
23.92	101
24.16	105
24.4	92
24.64	59
24.88	70
25.12	64
25.36	69
25.6	67
25.84	66
26.08	43
26.32	57
26.56	49
26.8	42
27.04	74
27.28	60
27.52	62
27.76	55
28	62
28.24	62
28.48	61
28.72	55
28.96	49
29.2	49
29.44	85
29.68	45
29.92	57
30.16	56
30.4	59
30.64	64
30.88	66
31.12	41
31.36	55
31.6	56
31.84	45
32.08	70
32.32	40
32.56	56
32.8	53
33.04	48
33.28	41
33.52	55
33.76	50
34	29
34.24	52
34.48	44
34.72	48
34.96	38
35.2	50
35.44	35
35.68	61
35.92	46
36.16	48
36.4	39
36.64	29
36.88	47
37.12	46
37.36	40
37.6	54
37.84	48
38.08	46
38.32	287
38.56	358
38.8	46
39.04	45
39.28	26
39.52	27
39.76	40
40	34
40.24	35
40.48	52
40.72	42
40.96	32
41.2	38
41.44	29
41.68	35
41.92	42
42.16	43
42.4	42
42.64	53
42.88	29
43.12	41
43.36	51
43.6	38
43.84	29
44.08	38
44.32	51
44.56	279
44.8	320
45.04	50
45.28	44
45.52	44
45.76	37
46	50
46.24	47
46.48	41
46.72	41
46.96	50
47.2	43
47.44	42
47.68	32
47.92	29
48.16	41
48.4	44
48.64	33
48.88	42
49.12	37
49.36	39
49.6	34
49.84	27
50.08	25
50.32	29
50.56	31
50.8	38
51.04	23
51.28	26
51.52	25
51.76	34
52	40
52.24	31
52.48	26
52.72	26
52.96	27
53.2	37
53.44	42
53.68	32
53.92	29
54.16	30
54.4	27
54.64	27
54.88	25
55.12	38
55.36	33
55.6	32
55.84	33
56.08	34
56.32	27
56.56	26
56.8	25
57.04	24
57.28	35
57.52	30
57.76	27
58	27
58.24	25
58.48	27
58.72	23
58.96	29
59.2	26
59.44	25
59.68	16
59.92	34
60.16	24
60.4	25
60.64	30
60.88	23
61.12	25
61.36	30
61.6	25
61.84	23
62.08	33
62.32	24
62.56	19
62.8	19
63.04	19
63.28	31
63.52	21
63.76	28
64	38
64.24	36
64.48	34
64.72	29
64.96	55
65.2	74
65.44	20
65.68	25
65.92	24
66.16	23
66.4	24
66.64	20
66.88	26
67.12	16
67.36	25
67.6	26
67.84	34
68.08	22
68.32	24
68.56	21
68.8	17
69.04	24
69.28	25
69.52	26
69.76	19
70	25
70.24	17
70.48	26
70.72	18
70.96	21
71.2	22
71.44	19
71.68	22
71.92	16
72.16	19
72.4	27
72.64	15
72.88	20
73.12	25
73.36	29
73.6	24
73.84	25
74.08	18
74.32	33
74.56	20
74.8	19
75.04	26
75.28	24
75.52	24
75.76	20
76	19
76.24	19
76.48	19
76.72	22
76.96	27
77.2	19
77.44	18
77.68	22
77.92	27
78.16	120
78.4	88
78.64	21
78.88	17
79.12	23
79.36	20
79.6	24
79.84	21
80	17