File: XRD-YCQD.txt
10	207
10.24	168
10.48	109
10.72	92
10.96	85
11.2	89
11.44	88
11.68	64
11.92	96
12.16	88
12.4	89
12.64	79
12.88	103
13.12	91
13.36	95
13.6	95
13.84	101
14.08	85
14.32	78
14.56	91
14.8	83
15.04	98
15.28	86
15.52	100
15.76	100
16	108
16.24	83
16.48	94
16.72	100
16.96	116
17.2	108
17.44	107
17.68	237
17.92	105
18.16	111
18.4	120
18.64	93
18.88	98
19.12	104
19.36	87
19.6	248
19.84	118
20.08	131
20.32	109
20.56	113
20.8	123
21.04	101
21.28	137
21.52	104
21.76	132
22	90
22.24	133
22.48	130
22.72	110
22.96	137
23.2	135
23.44	138
23.68	137
23.92	100
24.16	113
24.4	105
24.64	114
24.88	109
25.12	93
25.36	109
25.6	113
25.84	121
26.08	167
26.32	190
26.56	154
26.8	134
27.04	121
27.28	123
27.52	92
27.76	102
28	112
28.24	107
28.48	146
28.72	109
28.96	106
29.2	105
29.44	114
29.68	104
29.92	131
30.16	165
30.4	150
30.64	195
30.88	255
31.12	223
31.36	193
31.6	159
31.84	207
32.08	199
32.32	148
32.56	121
32.8	149
33.04	167
33.28	131
33.52	126
33.76	117
34	116
34.24	113
34.48	92
34.72	91
34.96	74
35.2	77
35.44	70
35.68	83
35.92	68
36.16	76
36.4	80
36.64	57
36.88	69
37.12	79
37.36	70
37.6	74
37.84	82
38.08	81
38.32	358
38.56	498
38.8	103
39.04	92
39.28	80
39.52	76
39.76	74
40	70
40.24	90
40.48	67
40.72	67
40.96	76
41.2	69
41.44	67
41.68	61
41.92	73
42.16	58
42.4	63
42.64	75
42.88	57
43.12	85
43.36	64
43.6	71
43.84	59
44.08	71
44.32	98
44.56	396
44.8	525
45.04	85
45.28	86
45.52	85
45.76	85
46	94
46.24	67
46.48	77
46.72	98
46.96	67
47.2	70
47.44	77
47.68	63
47.92	67
48.16	60
48.4	50
48.64	64
48.88	71
49.12	54
49.36	53
49.6	64
49.84	55
50.08	54
50.32	67
50.56	50
50.8	67
51.04	49
51.28	54
51.52	60
51.76	60
52	59
52.24	75
52.48	52
52.72	74
52.96	63
53.2	82
53.44	55
53.68	53
53.92	64
54.16	57
54.4	52
54.64	45
54.88	53
55.12	50
55.36	40
55.6	34
55.84	56
56.08	43
56.32	51
56.56	56
56.8	49
57.04	45
57.28	47
57.52	39
57.76	38
58	52
58.24	56
58.48	38
58.72	36
58.96	67
59.2	45
59.44	36
59.68	28
59.92	61
60.16	35
60.4	39
60.64	31
60.88	29
61.12	35
61.36	47
61.6	38
61.84	48
62.08	31
62.32	31
62.56	30
62.8	50
63.04	21
63.28	30
63.52	34
63.76	33
64	45
64.24	38
64.48	41
64.72	46
64.96	81
65.2	95
65.44	40
65.68	32
65.92	28
66.16	25
66.4	42
66.64	32
66.88	28
67.12	35
67.36	35
67.6	38
67.84	40
68.08	34
68.32	32
68.56	35
68.8	28
69.04	35
69.28	30
69.52	29
69.76	35
70	30
70.24	41
70.48	25
70.72	23
70.96	34
71.2	30
71.44	32
71.68	24
71.92	34
72.16	27
72.4	33
72.64	22
72.88	26
73.12	22
73.36	30
73.6	27
73.84	32
74.08	21
74.32	20
74.56	30
74.8	30
75.04	31
75.28	22
75.52	33
75.76	26
76	21
76.24	20
76.48	28
76.72	30
76.96	26
77.2	28
77.44	31
77.68	25
77.92	36
78.16	185
78.4	128
78.64	44
78.88	43
79.12	38
79.36	28
79.6	25
79.84	25
80	36