File: XRD-CCQD.txt
10	141
10.24	128
10.48	96
10.72	73
10.96	80
11.2	74
11.44	90
11.68	80
11.92	76
12.16	70
12.4	84
12.64	71
12.88	83
13.12	78
13.36	65
13.6	76
13.84	83
14.08	75
14.32	62
14.56	75
14.8	79
15.04	72
15.28	92
15.52	72
15.76	66
16	76
16.24	94
16.48	74
16.72	68
16.96	77
17.2	72
17.44	58
17.68	73
17.92	54
18.16	77
18.4	67
18.64	67
18.88	72
19.12	73
19.36	69
19.6	68
19.84	75
20.08	74
20.32	79
20.56	65
20.8	72
21.04	79
21.28	88
21.52	76
21.76	63
22	74
22.24	87
22.48	76
22.72	74
22.96	82
23.2	93
23.44	76
23.68	79
23.92	77
24.16	94
24.4	64
24.64	75
24.88	76
25.12	83
25.36	87
25.6	84
25.84	86
26.08	83
26.32	87
26.56	80
26.8	74
27.04	93
27.28	87
27.52	85
27.76	84
28	83
28.24	79
28.48	82
28.72	67
28.96	60
29.2	77
29.44	66
29.68	83
29.92	72
30.16	61
30.4	78
30.64	57
30.88	76
31.12	46
31.36	62
31.6	57
31.84	52
32.08	58
32.32	50
32.56	55
32.8	48
33.04	55
33.28	50
33.52	66
33.76	50
34	43
34.24	44
34.48	52
34.72	45
34.96	44
35.2	46
35.44	45
35.68	42
35.92	35
36.16	46
36.4	40
36.64	44
36.88	34
37.12	44
37.36	45
37.6	40
37.84	45
38.08	52
38.32	69
38.56	42
38.8	42
39.04	47
39.28	33
39.52	34
39.76	37
40	33
40.24	37
40.48	42
40.72	34
40.96	42
41.2	44
41.44	37
41.68	42
41.92	43
42.16	31
42.4	28
42.64	33
42.88	36
43.12	36
43.36	37
43.6	38
43.84	42
44.08	34
44.32	50
44.56	91
44.8	58
45.04	33
45.28	55
45.52	31
45.76	36
46	41
46.24	38
46.48	41
46.72	34
46.96	32
47.2	34
47.44	35
47.68	44
47.92	44
48.16	41
48.4	26
48.64	43
48.88	27
49.12	42
49.36	29
49.6	30
49.84	28
50.08	28
50.32	27
50.56	37
50.8	36
51.04	37
51.28	30
51.52	37
51.76	33
52	42
52.24	33
52.48	27
52.72	30
52.96	36
53.2	30
53.44	28
53.68	44
53.92	45
54.16	45
54.4	30
54.64	33
54.88	34
55.12	33
55.36	35
55.6	30
55.84	37
56.08	35
56.32	36
56.56	34
56.8	30
57.04	32
57.28	36
57.52	41
57.76	39
58	31
58.24	35
58.48	36
58.72	38
58.96	45
59.2	30
59.44	28
59.68	40
59.92	28
60.16	32
60.4	26
60.64	35
60.88	26
61.12	21
61.36	31
61.6	38
61.84	46
62.08	29
62.32	26
62.56	33
62.8	32
63.04	26
63.28	32
63.52	32
63.76	27
64	34
64.24	24
64.48	29
64.72	38
64.96	35
65.2	29
65.44	39
65.68	25
65.92	31
66.16	27
66.4	36
66.64	35
66.88	30
67.12	20
67.36	38
67.6	37
67.84	33
68.08	30
68.32	22
68.56	27
68.8	23
69.04	27
69.28	25
69.52	24
69.76	23
70	28
70.24	31
70.48	28
70.72	24
70.96	33
71.2	16
71.44	27
71.68	32
71.92	32
72.16	30
72.4	36
72.64	22
72.88	36
73.12	27
73.36	28
73.6	31
73.84	28
74.08	23
74.32	26
74.56	29
74.8	19
75.04	26
75.28	25
75.52	32
75.76	27
76	23
76.24	28
76.48	23
76.72	23
76.96	24
77.2	17
77.44	29
77.68	26
77.92	38
78.16	40
78.4	35
78.64	30
78.88	28
79.12	19
79.36	34
79.6	22
79.84	25
80	29